File: 350.chi
C:\Users\geste_000\Documents\MatLab Analysis\PSU\(111) Dense\clamped files\350.t
2-Theta Angle (Degrees)
Intensity
       1500
 0.525433  999.617
 0.543693  1089.85
 0.561953  973.164
 0.580213  1025.56
 0.598474  1038.86
 0.616734  967.192
 0.634994  1019.63
 0.653255  1011.79
 0.671515  982.003
 0.689775  1006.3
 0.708036  1026.82
 0.726296  978.753
 0.744556  1090.66
 0.762816  1194.66
 0.781077  1023.42
 0.799337  1003.31
 0.817597  1132.72
 0.835858  1102.14
 0.854118  1082.66
 0.872378  1114.82
 0.890639  1130.57
 0.908899  1134.72
 0.927159  1047.74
 0.945419  1125.58
 0.96368  1115.28
 0.98194  1049.29
 1.0002  1174.69
 1.01846  1061.13
 1.03672  1061.58
 1.05498  1158.78
 1.07324  1105.34
 1.0915  1008.13
 1.10976  1094.43
 1.12802  1068.19
 1.14628  1100.47
 1.16454  1133.71
 1.1828  1219.84
 1.20106  1102.79
 1.21932  1213.51
 1.23758  1158.32
 1.25584  1137.14
 1.2741  1097.37
 1.29237  1210.84
 1.31063  1094.97
 1.32889  1229.02
 1.34715  1195.33
 1.36541  1175.75
 1.38367  1251.61
 1.40193  1174.16
 1.42019  1163.45
 1.43845  1169.44
 1.45671  1186.79
 1.47497  1155.31
 1.49323  1206.17
 1.51149  1333.26
 1.52975  1468.67
 1.54801  1496.88
 1.56627  1365.76
 1.58453  1239.79
 1.60279  1228.75
 1.62105  1254.17
 1.63931  1251
 1.65757  1194.02
 1.67583  1263.01
 1.69409  1194.49
 1.71235  1227.42
 1.73061  1147.37
 1.74887  1236.55
 1.76713  1233.94
 1.78539  1253.43
 1.80365  1234.45
 1.82191  1204.89
 1.84017  1284.31
 1.85843  1259.03
 1.87669  1225.53
 1.89495  1294.35
 1.91322  1264.05
 1.93148  1262.06
 1.94974  1285.71
 1.968  1370.91
 1.98626  1266.53
 2.00452  1406.36
 2.02278  1317.21
 2.04104  1370.21
 2.0593  1278.8
 2.07756  1360.86
 2.09582  1366.13
 2.11408  1399.68
 2.13234  1605.14
 2.1506  2096.61
 2.16886  2233.31
 2.18712  1900.42
 2.20538  1484.31
 2.22364  1341.41
 2.2419  1450.62
 2.26016  1368.3
 2.27842  1394.41
 2.29668  1403.85
 2.31494  1447.2
 2.3332  1395.83
 2.35146  1443.07
 2.36972  1499.48
 2.38798  1509.05
 2.40624  1495.02
 2.4245  1550.48
 2.44276  1543.71
 2.46102  1617.21
 2.47928  1611.83
 2.49755  1632.18
 2.51581  1769.64
 2.53407  1798.3
 2.55233  2031.64
 2.57059  2177.42
 2.58885  2453.64
 2.60711  3135.62
 2.62537  5665.94
 2.64363  27939.8
 2.66189  27999.2
 2.68015  8344.19
 2.69841  9786.74
 2.71667  37185
 2.73493  267309
 2.75319  22106
 2.77145  7519.52
 2.78971  4702.15
 2.80797  3446.91
 2.82623  2825.75
 2.84449  2467.98
 2.86275  2182.7
 2.88101  2042.86
 2.89927  1910.98
 2.91753  1817.84
 2.93579  1809.75
 2.95405  1802.19
 2.97231  1804.19
 2.99057  1749.76
 3.00883  1749.32
 3.02709  1774.07
 3.04535  1876.6
 3.06361  1859.63
 3.08187  2078.05
 3.10013  1977.49
 3.1184  1758.07
 3.13666  1837.55
 3.15492  2158
 3.17318  1816.42
 3.19144  1738.9
 3.2097  1704.52
 3.22796  1728.58
 3.24622  1746.18
 3.26448  1700.55
 3.28274  1740.34
 3.301  1737.75
 3.31926  1692.9
 3.33752  1674.55
 3.35578  1740.28
 3.37404  1765.61
 3.3923  1814.13
 3.41056  1812.93
 3.42882  1827.15
 3.44708  1887.08
 3.46534  1815.16
 3.4836  1836.73
 3.50186  1844.03
 3.52012  1809.97
 3.53838  1838.62
 3.55664  1810.36
 3.5749  1848.93
 3.59316  1881.85
 3.61142  1874.66
 3.62968  1937.74
 3.64794  1981.81
 3.6662  2075.24
 3.68446  2264.5
 3.70272  2809.4
 3.72098  3248.87
 3.73925  3747.72
 3.75751  6426.66
 3.77577  5582.83
 3.79403  2927.33
 3.81229  2356.47
 3.83055  2296.07
 3.84881  2144.55
 3.86707  2100.22
 3.88533  2090.62
 3.90359  2111.9
 3.92185  2096.2
 3.94011  2194.99
 3.95837  2171.04
 3.97663  2251.58
 3.99489  2311.33
 4.01315  2290.32
 4.03141  2356.93
 4.04967  2464.92
 4.06793  2476.46
 4.08619  2490.89
 4.10445  2649.44
 4.12271  2678.15
 4.14097  2796.13
 4.15923  2860.35
 4.17749  3026.33
 4.19575  3148.18
 4.21401  3252.09
 4.23227  3411.33
 4.25053  3455.96
 4.26879  3658.63
 4.28705  3753.14
 4.30531  3955.9
 4.32357  4128.82
 4.34183  4148.29
 4.3601  4218.87
 4.37836  4339.3
 4.39662  4252.81
 4.41488  4314.97
 4.43314  4358.53
 4.4514  4450.16
 4.46966  4579.75
 4.48792  4395.82
 4.50618  4331.88
 4.52444  4403.81
 4.5427  4457.35
 4.56096  4918.77
 4.57922  5272.1
 4.59748  5018.72
 4.61574  4848.21
 4.634  4619.87
 4.65226  4294.17
 4.67052  4121.42
 4.68878  3953.54
 4.70704  3902.66
 4.7253  3811.57
 4.74356  3718.08
 4.76182  3642.58
 4.78008  3518.19
 4.79834  3458.61
 4.8166  3358.46
 4.83486  3322.2
 4.85312  3242.85
 4.87138  3273.11
 4.88964  3231.02
 4.9079  3087.45
 4.92616  2974.39
 4.94443  2865.91
 4.96269  2846.04
 4.98095  2804.99
 4.99921  2693.48
 5.01747  2628.9
 5.03573  2606.3
 5.05399  2573.63
 5.07225  2614.8