File: 351.chi
C:\Users\geste_000\Documents\MatLab Analysis\PSU\(111) Dense\clamped files\351.t
2-Theta Angle (Degrees)
Intensity
       1500
 0.525433  1129.5
 0.543693  1074.76
 0.561953  893.779
 0.580213  1040.02
 0.598474  1058.39
 0.616734  935.478
 0.634994  967.296
 0.653255  948.074
 0.671515  1032.68
 0.689775  1056.21
 0.708036  965.006
 0.726296  1061.42
 0.744556  1126.85
 0.762816  993.727
 0.781077  1096.1
 0.799337  1021.87
 0.817597  1091.37
 0.835858  1102.18
 0.854118  1046.2
 0.872378  1117.39
 0.890639  1035.74
 0.908899  1157.77
 0.927159  1090.14
 0.945419  1025.7
 0.96368  1044.85
 0.98194  1112.5
 1.0002  1123.1
 1.01846  1028.1
 1.03672  1043.8
 1.05498  982.403
 1.07324  1170.8
 1.0915  1051.46
 1.10976  1138.71
 1.12802  1103.7
 1.14628  1078.94
 1.16454  1096.07
 1.1828  1076.04
 1.20106  1120.31
 1.21932  1161.93
 1.23758  1158.6
 1.25584  1136.5
 1.2741  1123.51
 1.29237  1152.1
 1.31063  1126.77
 1.32889  1100.57
 1.34715  1133.98
 1.36541  1128.61
 1.38367  1236.21
 1.40193  1233.31
 1.42019  1143.6
 1.43845  1295.73
 1.45671  1184.99
 1.47497  1218.66
 1.49323  1199.25
 1.51149  1274.74
 1.52975  1551.14
 1.54801  1501.19
 1.56627  1240.27
 1.58453  1202.2
 1.60279  1242.29
 1.62105  1263.06
 1.63931  1211.65
 1.65757  1240.82
 1.67583  1228.75
 1.69409  1263.45
 1.71235  1300.53
 1.73061  1263
 1.74887  1184.4
 1.76713  1235.88
 1.78539  1254.67
 1.80365  1220.87
 1.82191  1246.81
 1.84017  1300.54
 1.85843  1215.85
 1.87669  1281.82
 1.89495  1263.45
 1.91322  1345.79
 1.93148  1271.78
 1.94974  1239.92
 1.968  1346.95
 1.98626  1323.17
 2.00452  1280.2
 2.02278  1362.16
 2.04104  1358.33
 2.0593  1353.53
 2.07756  1310.05
 2.09582  1354.7
 2.11408  1343.65
 2.13234  1543.57
 2.1506  2057.23
 2.16886  2194.71
 2.18712  1926.23
 2.20538  1450.8
 2.22364  1364.45
 2.2419  1419.63
 2.26016  1448.18
 2.27842  1377.06
 2.29668  1399.21
 2.31494  1477.44
 2.3332  1362.23
 2.35146  1459.51
 2.36972  1377.21
 2.38798  1397.55
 2.40624  1483.8
 2.4245  1507.33
 2.44276  1554.71
 2.46102  1550.97
 2.47928  1607.12
 2.49755  1718.23
 2.51581  1734.71
 2.53407  1834.6
 2.55233  2003.68
 2.57059  2153.38
 2.58885  2406.41
 2.60711  3137.74
 2.62537  5653.76
 2.64363  27832.3
 2.66189  27858.8
 2.68015  8343.76
 2.69841  9792.98
 2.71667  37100.6
 2.73493  266708
 2.75319  22063.3
 2.77145  7571.3
 2.78971  4629.48
 2.80797  3418.02
 2.82623  2723.32
 2.84449  2442.02
 2.86275  2221.05
 2.88101  2044.83
 2.89927  1893.05
 2.91753  1850.49
 2.93579  1845.34
 2.95405  1770.09
 2.97231  1784.58
 2.99057  1794.85
 3.00883  1757.91
 3.02709  1764.47
 3.04535  1814.74
 3.06361  1875.3
 3.08187  2099.26
 3.10013  1928.53
 3.1184  1767.56
 3.13666  1850.66
 3.15492  2184.85
 3.17318  1758.96
 3.19144  1711.65
 3.2097  1679.81
 3.22796  1665.99
 3.24622  1740.17
 3.26448  1701.33
 3.28274  1694.55
 3.301  1692.66
 3.31926  1738.29
 3.33752  1754.8
 3.35578  1757.71
 3.37404  1777.09
 3.3923  1790.86
 3.41056  1813.8
 3.42882  1818.84
 3.44708  1888.62
 3.46534  1810.63
 3.4836  1789.95
 3.50186  1841.84
 3.52012  1793.34
 3.53838  1855.41
 3.55664  1760.58
 3.5749  1785.28
 3.59316  1797.15
 3.61142  1865.7
 3.62968  1943.28
 3.64794  2017.84
 3.6662  2081.42
 3.68446  2307.84
 3.70272  2721.02
 3.72098  3223.85
 3.73925  3766.81
 3.75751  6431.6
 3.77577  5541.82
 3.79403  2910.31
 3.81229  2404.77
 3.83055  2217.82
 3.84881  2128.68
 3.86707  2057.6
 3.88533  2074.32
 3.90359  2108.01
 3.92185  2101.04
 3.94011  2169.41
 3.95837  2168.42
 3.97663  2242.71
 3.99489  2248.48
 4.01315  2278.25
 4.03141  2364.25
 4.04967  2397.87
 4.06793  2498.02
 4.08619  2542.34
 4.10445  2613.93
 4.12271  2738.43
 4.14097  2799.1
 4.15923  2877.9
 4.17749  2994.45
 4.19575  3099.1
 4.21401  3215.19
 4.23227  3380.51
 4.25053  3502.76
 4.26879  3585.35
 4.28705  3798.16
 4.30531  3892.43
 4.32357  4016.71
 4.34183  4099.26
 4.3601  4236.9
 4.37836  4304.53
 4.39662  4323.01
 4.41488  4307.92
 4.43314  4310.19
 4.4514  4387.16
 4.46966  4533.98
 4.48792  4359.94
 4.50618  4366.75
 4.52444  4370.87
 4.5427  4470.46
 4.56096  4843.99
 4.57922  5255.37
 4.59748  5011.61
 4.61574  4823.7
 4.634  4613.56
 4.65226  4296.06
 4.67052  4076.96
 4.68878  3964.24
 4.70704  3915
 4.7253  3831.77
 4.74356  3722.59
 4.76182  3630.59
 4.78008  3569.94
 4.79834  3473.57
 4.8166  3345.85
 4.83486  3297.16
 4.85312  3256.74
 4.87138  3258.03
 4.88964  3133.49
 4.9079  3043.78
 4.92616  2992.57
 4.94443  2844.5
 4.96269  2775.47
 4.98095  2781.32
 4.99921  2687.68
 5.01747  2653.94
 5.03573  2613.97
 5.05399  2601.77
 5.07225  2624.59