File: 352.chi
C:\Users\geste_000\Documents\MatLab Analysis\PSU\(111) Dense\clamped files\352.t
2-Theta Angle (Degrees)
Intensity
       1500
 0.525433  1097.2
 0.543693  1058.86
 0.561953  936.326
 0.580213  1028.13
 0.598474  968.291
 0.616734  1045.56
 0.634994  1045.93
 0.653255  1063.37
 0.671515  1056.48
 0.689775  1010.68
 0.708036  1051.43
 0.726296  1061.76
 0.744556  902.565
 0.762816  1056.58
 0.781077  992.978
 0.799337  1011.67
 0.817597  1035.24
 0.835858  1092.29
 0.854118  1026.41
 0.872378  1108.19
 0.890639  1021.51
 0.908899  1071.24
 0.927159  1106.63
 0.945419  1085.28
 0.96368  1077.27
 0.98194  1131.92
 1.0002  1072.04
 1.01846  1057.73
 1.03672  1092.63
 1.05498  1046.49
 1.07324  1185.09
 1.0915  1194.77
 1.10976  1144.72
 1.12802  1103.32
 1.14628  1152.08
 1.16454  1078.95
 1.1828  1136.96
 1.20106  1094.22
 1.21932  1117.12
 1.23758  1125.05
 1.25584  1151.07
 1.2741  1204.9
 1.29237  1195.38
 1.31063  1230.28
 1.32889  1149.78
 1.34715  1189.32
 1.36541  1267.38
 1.38367  1188.15
 1.40193  1216.94
 1.42019  1167.14
 1.43845  1262.88
 1.45671  1187.34
 1.47497  1282.83
 1.49323  1343.56
 1.51149  1345.76
 1.52975  1464.11
 1.54801  1523.01
 1.56627  1269.85
 1.58453  1211.68
 1.60279  1181.55
 1.62105  1226.49
 1.63931  1150.54
 1.65757  1245.9
 1.67583  1209.36
 1.69409  1164.8
 1.71235  1237.59
 1.73061  1143.51
 1.74887  1231.09
 1.76713  1284.81
 1.78539  1212.12
 1.80365  1210.77
 1.82191  1274.91
 1.84017  1217.37
 1.85843  1225.1
 1.87669  1206.79
 1.89495  1224.4
 1.91322  1266.66
 1.93148  1301.48
 1.94974  1202.25
 1.968  1272.67
 1.98626  1310.33
 2.00452  1270.4
 2.02278  1374.93
 2.04104  1382.05
 2.0593  1344.57
 2.07756  1281.93
 2.09582  1402.46
 2.11408  1406.99
 2.13234  1583.59
 2.1506  2086.76
 2.16886  2157.22
 2.18712  1791.12
 2.20538  1488.04
 2.22364  1350.91
 2.2419  1435.31
 2.26016  1399.47
 2.27842  1371.02
 2.29668  1307.5
 2.31494  1380.31
 2.3332  1374.39
 2.35146  1478.36
 2.36972  1463.45
 2.38798  1531.8
 2.40624  1566.18
 2.4245  1497.61
 2.44276  1514.61
 2.46102  1589.51
 2.47928  1669.56
 2.49755  1624.86
 2.51581  1769.42
 2.53407  1899.28
 2.55233  1977.41
 2.57059  2184.49
 2.58885  2463.52
 2.60711  3078.7
 2.62537  5632.57
 2.64363  27760.7
 2.66189  27764
 2.68015  8236.49
 2.69841  9715.21
 2.71667  37021.1
 2.73493  265535
 2.75319  22050.7
 2.77145  7367.95
 2.78971  4608.59
 2.80797  3335.54
 2.82623  2747.42
 2.84449  2421.1
 2.86275  2197.86
 2.88101  1991.37
 2.89927  1919.13
 2.91753  1849.8
 2.93579  1786.77
 2.95405  1731.97
 2.97231  1782.62
 2.99057  1768.72
 3.00883  1729.35
 3.02709  1746.99
 3.04535  1847.18
 3.06361  1922.61
 3.08187  2085.05
 3.10013  1885.6
 3.1184  1765.5
 3.13666  1807.33
 3.15492  2108.31
 3.17318  1791.58
 3.19144  1715.7
 3.2097  1724.65
 3.22796  1630.05
 3.24622  1705.99
 3.26448  1772.93
 3.28274  1678.88
 3.301  1686.54
 3.31926  1694.22
 3.33752  1707.36
 3.35578  1738.19
 3.37404  1772.5
 3.3923  1751.51
 3.41056  1831.16
 3.42882  1856.36
 3.44708  1898.12
 3.46534  1806.96
 3.4836  1777.25
 3.50186  1749.77
 3.52012  1824.39
 3.53838  1796.49
 3.55664  1863.87
 3.5749  1839.1
 3.59316  1834.66
 3.61142  1888.18
 3.62968  1905.45
 3.64794  1972.2
 3.6662  2061.1
 3.68446  2226.44
 3.70272  2785.14
 3.72098  3258.61
 3.73925  3740.92
 3.75751  6425.77
 3.77577  5565.73
 3.79403  2911.18
 3.81229  2386.6
 3.83055  2238.12
 3.84881  2122.16
 3.86707  2137.12
 3.88533  2116.95
 3.90359  2126.26
 3.92185  2118.79
 3.94011  2128.2
 3.95837  2175.07
 3.97663  2219.47
 3.99489  2207.23
 4.01315  2284.67
 4.03141  2359.86
 4.04967  2345.34
 4.06793  2435.75
 4.08619  2506.69
 4.10445  2576.52
 4.12271  2660.52
 4.14097  2819.52
 4.15923  2840.34
 4.17749  3006.3
 4.19575  3056.4
 4.21401  3217.27
 4.23227  3342.46
 4.25053  3458.27
 4.26879  3590.93
 4.28705  3763.64
 4.30531  3930.5
 4.32357  4069.64
 4.34183  4075.97
 4.3601  4171.36
 4.37836  4300.94
 4.39662  4268.17
 4.41488  4298.12
 4.43314  4384.56
 4.4514  4456.35
 4.46966  4535.16
 4.48792  4377.74
 4.50618  4381.38
 4.52444  4348.97
 4.5427  4419.18
 4.56096  4867.13
 4.57922  5175.62
 4.59748  4924.83
 4.61574  4834.37
 4.634  4536.68
 4.65226  4246.01
 4.67052  4057.46
 4.68878  3935.4
 4.70704  3851.6
 4.7253  3755.8
 4.74356  3702.12
 4.76182  3615.37
 4.78008  3514.07
 4.79834  3430.93
 4.8166  3332.16
 4.83486  3264.88
 4.85312  3250.67
 4.87138  3250.32
 4.88964  3179.47
 4.9079  3009.85
 4.92616  2972.33
 4.94443  2843.83
 4.96269  2796.14
 4.98095  2736.03
 4.99921  2725.85
 5.01747  2706.59
 5.03573  2616.91
 5.05399  2583.59
 5.07225  2602.56