File: 353.chi
C:\Users\geste_000\Documents\MatLab Analysis\PSU\(111) Dense\clamped files\353.t
2-Theta Angle (Degrees)
Intensity
       1500
 0.525433  1005.1
 0.543693  1061.07
 0.561953  987.092
 0.580213  1026.88
 0.598474  1115.29
 0.616734  956.096
 0.634994  1079.05
 0.653255  1076.97
 0.671515  1071.59
 0.689775  1114.63
 0.708036  1008.23
 0.726296  1093.55
 0.744556  1040.46
 0.762816  1020.57
 0.781077  1159.12
 0.799337  1016.1
 0.817597  967.969
 0.835858  913.056
 0.854118  1024
 0.872378  1063.78
 0.890639  1060.36
 0.908899  1130.84
 0.927159  1036.62
 0.945419  1039.49
 0.96368  1052.46
 0.98194  1183.37
 1.0002  1064.55
 1.01846  1124.35
 1.03672  1211.91
 1.05498  1078.83
 1.07324  1109.71
 1.0915  1081.61
 1.10976  1077.82
 1.12802  1120.67
 1.14628  1083.55
 1.16454  1088.5
 1.1828  1114.23
 1.20106  1135.86
 1.21932  1171.81
 1.23758  1146.84
 1.25584  1133.27
 1.2741  1126.54
 1.29237  1147.16
 1.31063  1150.21
 1.32889  1176.18
 1.34715  1122.4
 1.36541  1125.97
 1.38367  1186.26
 1.40193  1174.01
 1.42019  1196.8
 1.43845  1178.03
 1.45671  1201.68
 1.47497  1237.5
 1.49323  1248.82
 1.51149  1381.22
 1.52975  1533.21
 1.54801  1434.2
 1.56627  1253.94
 1.58453  1147.22
 1.60279  1158.79
 1.62105  1206.38
 1.63931  1215.88
 1.65757  1166.4
 1.67583  1188.02
 1.69409  1139.87
 1.71235  1191.42
 1.73061  1210.22
 1.74887  1369.59
 1.76713  1239.64
 1.78539  1267.78
 1.80365  1205.78
 1.82191  1162.9
 1.84017  1219.29
 1.85843  1233.79
 1.87669  1309.47
 1.89495  1401.67
 1.91322  1201.29
 1.93148  1238.01
 1.94974  1289.22
 1.968  1342.37
 1.98626  1281.64
 2.00452  1316.02
 2.02278  1351
 2.04104  1299.67
 2.0593  1299.2
 2.07756  1322.12
 2.09582  1349.53
 2.11408  1401.29
 2.13234  1539.68
 2.1506  2080.52
 2.16886  2156.3
 2.18712  1824.5
 2.20538  1466.79
 2.22364  1419.37
 2.2419  1367.46
 2.26016  1370.88
 2.27842  1363.86
 2.29668  1448.12
 2.31494  1420.17
 2.3332  1383.83
 2.35146  1411.91
 2.36972  1424.86
 2.38798  1493.87
 2.40624  1533.82
 2.4245  1524.16
 2.44276  1526.16
 2.46102  1586.25
 2.47928  1568.94
 2.49755  1672.26
 2.51581  1745.94
 2.53407  1866.47
 2.55233  1941.2
 2.57059  2145.54
 2.58885  2459.53
 2.60711  3145.96
 2.62537  5647.64
 2.64363  27905.4
 2.66189  27472.2
 2.68015  8246.11
 2.69841  9697.51
 2.71667  36850.5
 2.73493  265157
 2.75319  21964.7
 2.77145  7440.29
 2.78971  4606.25
 2.80797  3378.41
 2.82623  2770.13
 2.84449  2359.53
 2.86275  2128.29
 2.88101  2027.07
 2.89927  1898.93
 2.91753  1824.02
 2.93579  1832.29
 2.95405  1807.38
 2.97231  1790.6
 2.99057  1797.83
 3.00883  1768.97
 3.02709  1789.15
 3.04535  1849.66
 3.06361  1871.81
 3.08187  2120.24
 3.10013  1874.25
 3.1184  1703.12
 3.13666  1813.4
 3.15492  2106.11
 3.17318  1831.64
 3.19144  1701.91
 3.2097  1749.28
 3.22796  1719.91
 3.24622  1721.36
 3.26448  1693.05
 3.28274  1670.47
 3.301  1702.04
 3.31926  1656.57
 3.33752  1774.2
 3.35578  1769.09
 3.37404  1714.7
 3.3923  1771.43
 3.41056  1758.78
 3.42882  1817.95
 3.44708  1790.7
 3.46534  1769.19
 3.4836  1819.39
 3.50186  1786.3
 3.52012  1755.69
 3.53838  1805.95
 3.55664  1778.26
 3.5749  1781.85
 3.59316  1861.99
 3.61142  1840.8
 3.62968  1910.56
 3.64794  1984.88
 3.6662  2061.6
 3.68446  2287.75
 3.70272  2848.76
 3.72098  3311.47
 3.73925  3704.88
 3.75751  6266.03
 3.77577  5562.17
 3.79403  2859.93
 3.81229  2343.08
 3.83055  2216.5
 3.84881  2159.99
 3.86707  2082
 3.88533  2074.17
 3.90359  2103.83
 3.92185  2077.41
 3.94011  2096.13
 3.95837  2187.91
 3.97663  2172.17
 3.99489  2222.51
 4.01315  2309.2
 4.03141  2312.15
 4.04967  2391.01
 4.06793  2408.74
 4.08619  2558.76
 4.10445  2595.59
 4.12271  2619.75
 4.14097  2752.71
 4.15923  2823.29
 4.17749  2968.46
 4.19575  3068.7
 4.21401  3236.71
 4.23227  3294.33
 4.25053  3436.19
 4.26879  3538.14
 4.28705  3746.53
 4.30531  3850.24
 4.32357  3997.53
 4.34183  4083.05
 4.3601  4156.67
 4.37836  4277.93
 4.39662  4252.49
 4.41488  4334.17
 4.43314  4354.87
 4.4514  4388.7
 4.46966  4493.17
 4.48792  4322.77
 4.50618  4331.55
 4.52444  4340.97
 4.5427  4461.61
 4.56096  4830.44
 4.57922  5223.63
 4.59748  4953.42
 4.61574  4791.2
 4.634  4614.45
 4.65226  4225.66
 4.67052  4013.22
 4.68878  3968
 4.70704  3892.66
 4.7253  3775.64
 4.74356  3702.72
 4.76182  3575.13
 4.78008  3458.22
 4.79834  3415
 4.8166  3316.48
 4.83486  3299.26
 4.85312  3190.17
 4.87138  3167.28
 4.88964  3167.13
 4.9079  3049.15
 4.92616  2924.53
 4.94443  2793.77
 4.96269  2810.42
 4.98095  2738.43
 4.99921  2689.06
 5.01747  2644.67
 5.03573  2626.38
 5.05399  2527.19
 5.07225  2560.53