File: 355.chi
C:\Users\geste_000\Documents\MatLab Analysis\PSU\(111) Dense\clamped files\355.t
2-Theta Angle (Degrees)
Intensity
       1500
 0.525433  966.494
 0.543693  899.8
 0.561953  954.205
 0.580213  1065.59
 0.598474  965.515
 0.616734  1011.39
 0.634994  1118.55
 0.653255  985.184
 0.671515  961.039
 0.689775  1034.45
 0.708036  1003.98
 0.726296  977.625
 0.744556  1025.03
 0.762816  984.454
 0.781077  1030.86
 0.799337  1082.36
 0.817597  1086.49
 0.835858  1070.41
 0.854118  1025.37
 0.872378  1051.57
 0.890639  1052.97
 0.908899  933.552
 0.927159  1119.14
 0.945419  1050.13
 0.96368  1025.85
 0.98194  1087.05
 1.0002  1120.45
 1.01846  997.85
 1.03672  1139.61
 1.05498  1104.85
 1.07324  1059.79
 1.0915  1097.16
 1.10976  1072.2
 1.12802  1163.75
 1.14628  1109.04
 1.16454  1140.29
 1.1828  1093.67
 1.20106  1149.66
 1.21932  1082.79
 1.23758  1142.19
 1.25584  1081
 1.2741  1067.87
 1.29237  1144.5
 1.31063  1234.14
 1.32889  1097.45
 1.34715  1104.97
 1.36541  1158.32
 1.38367  1051.91
 1.40193  1192.09
 1.42019  1132.33
 1.43845  1211.62
 1.45671  1199.58
 1.47497  1175.44
 1.49323  1205.78
 1.51149  1360.38
 1.52975  1534.64
 1.54801  1433.1
 1.56627  1225.34
 1.58453  1249.44
 1.60279  1185.15
 1.62105  1185.75
 1.63931  1311.44
 1.65757  1153.37
 1.67583  1235
 1.69409  1192.15
 1.71235  1233.89
 1.73061  1241.7
 1.74887  1194.11
 1.76713  1216.46
 1.78539  1252.78
 1.80365  1246.48
 1.82191  1323.51
 1.84017  1219.49
 1.85843  1224.92
 1.87669  1214.75
 1.89495  1204.47
 1.91322  1288.93
 1.93148  1298.76
 1.94974  1198.17
 1.968  1256.4
 1.98626  1236.75
 2.00452  1249.42
 2.02278  1300.84
 2.04104  1297.85
 2.0593  1256.85
 2.07756  1281.22
 2.09582  1316.59
 2.11408  1365.02
 2.13234  1599.92
 2.1506  2066.9
 2.16886  2200.65
 2.18712  1887.8
 2.20538  1435.1
 2.22364  1404.73
 2.2419  1351.71
 2.26016  1332.12
 2.27842  1365.94
 2.29668  1421.33
 2.31494  1403.75
 2.3332  1379.38
 2.35146  1391.02
 2.36972  1486.63
 2.38798  1531
 2.40624  1519.15
 2.4245  1455.47
 2.44276  1607.43
 2.46102  1554.83
 2.47928  1595.25
 2.49755  1643.77
 2.51581  1738.77
 2.53407  1815.77
 2.55233  1957.64
 2.57059  2144.81
 2.58885  2450.04
 2.60711  3133.89
 2.62537  5778.13
 2.64363  28249.2
 2.66189  26585.8
 2.68015  8085.03
 2.69841  9602.38
 2.71667  36795.2
 2.73493  264497
 2.75319  21695.3
 2.77145  7297.39
 2.78971  4638.64
 2.80797  3361.35
 2.82623  2713.85
 2.84449  2417.54
 2.86275  2161.02
 2.88101  2004.48
 2.89927  1881.21
 2.91753  1771.61
 2.93579  1809.82
 2.95405  1774.46
 2.97231  1790.74
 2.99057  1706.89
 3.00883  1810.26
 3.02709  1809.07
 3.04535  1791.38
 3.06361  1835.19
 3.08187  2083.68
 3.10013  1946.12
 3.1184  1785.18
 3.13666  1838.3
 3.15492  2062.74
 3.17318  1751.24
 3.19144  1685.41
 3.2097  1721.74
 3.22796  1694.71
 3.24622  1672.85
 3.26448  1696.45
 3.28274  1679.4
 3.301  1727.48
 3.31926  1678.16
 3.33752  1718.42
 3.35578  1707.62
 3.37404  1727.15
 3.3923  1748.18
 3.41056  1753.26
 3.42882  1780.87
 3.44708  1829.2
 3.46534  1763.29
 3.4836  1782.43
 3.50186  1744.95
 3.52012  1775.34
 3.53838  1820.96
 3.55664  1781
 3.5749  1852.72
 3.59316  1854.12
 3.61142  1898.01
 3.62968  1925.98
 3.64794  1937.31
 3.6662  2075.41
 3.68446  2288.8
 3.70272  2818.23
 3.72098  3354.72
 3.73925  3762.96
 3.75751  6011.81
 3.77577  5501.14
 3.79403  2966.51
 3.81229  2301.86
 3.83055  2237.47
 3.84881  2139.79
 3.86707  2108.18
 3.88533  2132.72
 3.90359  2129.53
 3.92185  2108.13
 3.94011  2160.48
 3.95837  2186
 3.97663  2143.48
 3.99489  2247.96
 4.01315  2296.77
 4.03141  2250.95
 4.04967  2339.56
 4.06793  2433.32
 4.08619  2500.56
 4.10445  2562.03
 4.12271  2672.61
 4.14097  2769.57
 4.15923  2862.89
 4.17749  2951.43
 4.19575  3083.98
 4.21401  3188.12
 4.23227  3297.42
 4.25053  3415.07
 4.26879  3594.6
 4.28705  3771.65
 4.30531  3866.22
 4.32357  4019.95
 4.34183  4061.21
 4.3601  4144.45
 4.37836  4282.69
 4.39662  4251.62
 4.41488  4255.16
 4.43314  4264.88
 4.4514  4352.07
 4.46966  4480.03
 4.48792  4249.4
 4.50618  4331.87
 4.52444  4329.97
 4.5427  4432.97
 4.56096  4871.55
 4.57922  5211.66
 4.59748  4933.77
 4.61574  4763.81
 4.634  4522.41
 4.65226  4222.02
 4.67052  3984
 4.68878  3882.29
 4.70704  3813.89
 4.7253  3739.18
 4.74356  3689.95
 4.76182  3546.6
 4.78008  3463.69
 4.79834  3426.98
 4.8166  3351.07
 4.83486  3245.68
 4.85312  3220.76
 4.87138  3265.92
 4.88964  3113.55
 4.9079  3009.01
 4.92616  2931.54
 4.94443  2839.98
 4.96269  2770.64
 4.98095  2725.81
 4.99921  2691.65
 5.01747  2624.15
 5.03573  2615.35
 5.05399  2555.5
 5.07225  2563.14